# Intrinsic AGN SED based on Mor and Netzer 2012 extended to shorter and longer wavelengts
# 1st col. wavelength(micron)                                               
# 2nd col. nuLnu arbitrary units                                                
# 3rd col. nuLnu low mean (25 percentile)
# 4th col. nuLnu high mean (75 percentile)
#   micron   mean(nuLnu) low mean  high mean   err 15mic err 2mic
   .18000     .84010     .58807    1.20014     .15490     .00000
   .21000     .84010     .58807    1.20014     .15490     .00000
   .24000     .84010     .58807    1.20014     .15490     .00000
   .27000     .84010     .58807    1.20014     .15490     .00000
   .30000     .84010     .58807    1.20014     .15490     .00000
   .33000     .84010     .58807    1.20014     .15490     .00000
   .36000     .84010     .58807    1.20014     .15490     .00000
   .39000     .84010     .58807    1.20014     .15490     .00000
   .42000     .84010     .58807    1.20014     .15490     .00000
   .45000     .84010     .58807    1.20014     .15490     .00000
   .51000     .84010     .58807    1.20014     .15490     .00000
   .60000     .73000     .51100    1.04286     .15490     .00000
   .70000     .67000     .46900     .95714     .15490     .00000
   .80000     .59000     .41300     .84286     .15490     .00000
   .90000     .53000     .37100     .75714     .15490     .00000
  1.00000     .51000     .35700     .72857     .15490     .00000
  1.10000     .60000     .42000     .85714     .15490     .00000
  1.30000     .77000     .53900    1.10000     .15490     .00000
  1.50000     .82000     .57400    1.17143     .15490     .00000
  1.70000     .93000     .65100    1.32857     .15490     .00000
  2.00000    1.02400     .71680    1.46286     .15490     .00000
  2.20000    1.03640     .73066    1.47007     .15181     .00309
  2.70000    1.04790     .75187    1.46049     .14418     .01072
  3.20000    1.05550     .77052    1.44589     .13668     .01822
  3.70000    1.06240     .78883    1.43084     .12930     .02560
  4.20000    1.06640     .80513    1.41245     .12205     .03285
  4.70000    1.06410     .81670    1.38645     .11492     .03998
  5.10000    1.05800     .82259    1.36077     .10930     .04560
  5.20000    1.05610     .82376    1.35397     .10791     .04700
  5.30000    1.05400     .82475    1.34696     .10652     .04839
  5.40000    1.05170     .82558    1.33975     .10513     .04977
  5.50000    1.04930     .82632    1.33244     .10375     .05115
  5.60000    1.04680     .82697    1.32506     .10237     .05253
  5.70000    1.04420     .82753    1.31760     .10100     .05390
  5.80000    1.04140     .82791    1.30994     .09963     .05527
  5.90000    1.03850     .82820    1.30219     .09827     .05663
  6.00000    1.03550     .82840    1.29438     .09691     .05799
  6.10000    1.03240     .82850    1.28648     .09555     .05935
  6.20000    1.02910     .82843    1.27839     .09420     .06070
  6.30000    1.02580     .82833    1.27034     .09286     .06204
  6.40000    1.02240     .82814    1.26222     .09151     .06339
  6.50000    1.01900     .82794    1.25415     .09018     .06473
  6.60000    1.01560     .82771    1.24613     .08884     .06606
  6.70000    1.01220     .82747    1.23817     .08751     .06739
  6.80000    1.00880     .82722    1.23024     .08619     .06872
  6.90000    1.00560     .82711    1.22261     .08486     .07004
  7.00000    1.00250     .82706    1.21515     .08355     .07136
  7.10000     .99970     .82725    1.20810     .08223     .07267
  7.20000     .99720     .82768    1.20145     .08092     .07398
  7.30000     .99500     .82834    1.19520     .07962     .07529
  7.40000     .99330     .82941    1.18958     .07831     .07659
  7.50000     .99200     .83080    1.18448     .07702     .07789
  7.60000     .99130     .83269    1.18012     .07572     .07918
  7.70000     .99120     .83509    1.17650     .07443     .08047
  7.80000     .99160     .83790    1.17349     .07314     .08176
  7.90000     .99280     .84140    1.17145     .07186     .08304
  8.00000     .99470     .84549    1.17024     .07058     .08432
  8.10000     .99720     .85011    1.16974     .06931     .08560
  8.20000    1.00050     .85543    1.17018     .06803     .08687
  8.30000    1.00440     .86127    1.17131     .06677     .08814
  8.40000    1.00910     .86783    1.17337     .06550     .08940
  8.50000    1.01430     .87483    1.17600     .06424     .09066
  8.60000    1.02010     .88239    1.17931     .06298     .09192
  8.70000    1.02650     .89049    1.18329     .06173     .09317
  8.80000    1.03330     .89897    1.18770     .06048     .09442
  8.90000    1.04040     .90775    1.19244     .05923     .09567
  9.00000    1.04790     .91691    1.19760     .05799     .09691
  9.10000    1.05550     .92620    1.20285     .05675     .09815
  9.20000    1.06320     .93562    1.20818     .05552     .09938
  9.30000    1.07100     .94516    1.21360     .05429     .10062
  9.40000    1.07860     .95456    1.21876     .05306     .10185
  9.50000    1.08610     .96391    1.22377     .05183     .10307
  9.60000    1.09330     .97304    1.22843     .05061     .10429
  9.70000    1.10020     .98193    1.23272     .04939     .10551
  9.80000    1.10670     .99050    1.23654     .04818     .10672
  9.90000    1.11260     .99856    1.23967     .04697     .10794
 10.00000    1.11810    1.00629    1.24233     .04576     .10914
 10.10000    1.12290    1.01342    1.24421     .04455     .11035
 10.20000    1.12700    1.01993    1.24530     .04335     .11155
 10.30000    1.13050    1.02593    1.24573     .04215     .11275
 10.40000    1.13320    1.03121    1.24527     .04096     .11394
 10.50000    1.13510    1.03578    1.24395     .03977     .11513
 10.60000    1.13630    1.03971    1.24186     .03858     .11632
 10.70000    1.13670    1.04292    1.23891     .03739     .11751
 10.80000    1.13630    1.04540    1.23511     .03621     .11869
 10.90000    1.13510    1.04713    1.23046     .03503     .11987
 11.00000    1.13320    1.04821    1.22508     .03386     .12104
 11.10000    1.13050    1.04854    1.21887     .03269     .12222
 11.20000    1.12720    1.04830    1.21204     .03152     .12338
 11.30000    1.12320    1.04738    1.20450     .03035     .12455
 11.40000    1.11870    1.04598    1.19647     .02919     .12571
 11.50000    1.11370    1.04409    1.18795     .02803     .12687
 11.60000    1.10820    1.04171    1.17894     .02687     .12803
 11.70000    1.10240    1.03901    1.16966     .02572     .12918
 11.80000    1.09640    1.03610    1.16021     .02457     .13033
 11.90000    1.09020    1.03296    1.15061     .02342     .13148
 12.00000    1.08390    1.02970    1.14095     .02228     .13263
 12.10000    1.07760    1.02641    1.13134     .02114     .13377
 12.20000    1.07140    1.02319    1.12188     .02000     .13491
 12.30000    1.06530    1.02002    1.11258     .01886     .13604
 12.40000    1.05940    1.01702    1.10354     .01773     .13717
 12.50000    1.05380    1.01428    1.09486     .01660     .13830
 12.60000    1.04860    1.01190    1.08663     .01547     .13943
 12.70000    1.04370    1.00978    1.07876     .01435     .14055
 12.80000    1.03930    1.00812    1.07144     .01323     .14167
 12.90000    1.03530    1.00683    1.06458     .01211     .14279
 13.00000    1.03190    1.00610    1.05836     .01100     .14391
 13.10000    1.02890    1.00575    1.05258     .00988     .14502
 13.20000    1.02640    1.00587    1.04735     .00877     .14613
 13.30000    1.02450    1.00657    1.04275     .00767     .14723
 13.40000    1.02320    1.00785    1.03878     .00656     .14834
 13.50000    1.02240    1.00962    1.03534     .00546     .14944
 13.60000    1.02210    1.01188    1.03242     .00436     .15054
 13.70000    1.02240    1.01473    1.03013     .00327     .15163
 13.80000    1.02330    1.01818    1.02844     .00218     .15273
 13.90000    1.02470    1.02214    1.02727     .00109     .15381
 14.00000    1.02660    1.02660    1.02660     .00000     .15490
 14.10000    1.02900    1.03157    1.02643     .00108     .15599
 14.20000    1.03190    1.03706    1.02677     .00217     .15707
 14.30000    1.03530    1.04306    1.02759     .00325     .15815
 14.40000    1.03920    1.04959    1.02891     .00432     .15922
 14.50000    1.04350    1.05654    1.03062     .00540     .16030
 14.60000    1.04820    1.06392    1.03271     .00647     .16137
 14.70000    1.05330    1.07173    1.03518     .00753     .16244
 14.80000    1.05870    1.07987    1.03794     .00860     .16350
 14.90000    1.06440    1.08835    1.04098     .00966     .16457
 15.00000    1.07040    1.09716    1.04429     .01072     .16563
 15.10000    1.07670    1.10631    1.04788     .01178     .16668
 15.20000    1.08310    1.11559    1.05155     .01284     .16774
 15.30000    1.08970    1.12512    1.05540     .01389     .16879
 15.40000    1.09640    1.13477    1.05932     .01494     .16984
 15.50000    1.10320    1.14457    1.06333     .01599     .17089
 15.60000    1.11000    1.15440    1.06731     .01703     .17194
 15.70000    1.11670    1.16416    1.07118     .01808     .17298
 15.80000    1.12340    1.17395    1.07502     .01912     .17402
 15.90000    1.12990    1.18357    1.07866     .02015     .17506
 16.00000    1.13630    1.19311    1.08219     .02119     .17609
 16.10000    1.14240    1.20238    1.08542     .02222     .17712
 16.20000    1.14830    1.21146    1.08844     .02325     .17815
 16.30000    1.15380    1.22014    1.09106     .02428     .17918
 16.40000    1.15900    1.22854    1.09340     .02531     .18021
 16.50000    1.16370    1.23643    1.09525     .02633     .18123
 16.60000    1.16800    1.24392    1.09671     .02735     .18225
 16.70000    1.17190    1.25100    1.09780     .02837     .18327
 16.80000    1.17530    1.25757    1.09841     .02938     .18429
 16.90000    1.17830    1.26373    1.09865     .03040     .18530
 17.00000    1.18070    1.26925    1.09833     .03141     .18631
 17.10000    1.18270    1.27436    1.09763     .03242     .18732
 17.20000    1.18420    1.27894    1.09648     .03342     .18833
 17.30000    1.18520    1.28298    1.09487     .03443     .18933
 17.40000    1.18590    1.28670    1.09300     .03543     .19033
 17.50000    1.18610    1.28988    1.09067     .03643     .19133
 17.60000    1.18600    1.29274    1.08807     .03743     .19233
 17.70000    1.18550    1.29516    1.08513     .03842     .19332
 17.80000    1.18480    1.29736    1.08201     .03941     .19432
 17.90000    1.18380    1.29922    1.07863     .04040     .19531
 18.00000    1.18260    1.30086    1.07509     .04139     .19629
 18.10000    1.18110    1.30216    1.07129     .04238     .19728
 18.20000    1.17950    1.30335    1.06742     .04336     .19826
 18.30000    1.17770    1.30430    1.06339     .04434     .19925
 18.40000    1.17580    1.30514    1.05928     .04532     .20022
 18.50000    1.17380    1.30585    1.05510     .04630     .20120
 18.60000    1.17160    1.30633    1.05076     .04727     .20218
 18.70000    1.16940    1.30680    1.04644     .04825     .20315
 18.80000    1.16710    1.30715    1.04205     .04922     .20412
 18.90000    1.16460    1.30726    1.03751     .05019     .20509
 19.00000    1.16220    1.30747    1.03307     .05115     .20605
 19.10000    1.15960    1.30745    1.02847     .05212     .20702
 19.20000    1.15710    1.30752    1.02398     .05308     .20798
 19.30000    1.15450    1.30747    1.01943     .05404     .20894
 19.40000    1.15180    1.30729    1.01480     .05500     .20990
 19.50000    1.14920    1.30721    1.01029     .05595     .21085
 19.60000    1.14660    1.30712    1.00579     .05690     .21181
 19.70000    1.14400    1.30702    1.00131     .05786     .21276
 19.80000    1.14140    1.30690     .99686     .05881     .21371
 19.90000    1.13890    1.30689     .99251     .05975     .21465
 20.00000    1.13650    1.30698     .98826     .06070     .21560
 20.10000    1.13410    1.30705     .98403     .06164     .21654
 20.20000    1.13180    1.30723     .97991     .06258     .21748
 20.30000    1.12960    1.30751     .97590     .06352     .21842
 20.40000    1.12750    1.30790     .97198     .06446     .21936
 20.50000    1.12550    1.30839     .96817     .06539     .22029
 20.60000    1.12350    1.30888     .96438     .06633     .22123
 20.70000    1.12170    1.30958     .96077     .06726     .22216
 20.80000    1.11990    1.31028     .95718     .06819     .22309
 20.90000    1.11820    1.31109     .95369     .06911     .22401
 21.00000    1.11650    1.31189     .95021     .07004     .22494
 21.10000    1.11490    1.31279     .94684     .07096     .22586
 21.20000    1.11340    1.31381     .94356     .07188     .22678
 21.30000    1.11180    1.31470     .94021     .07280     .22770
 21.40000    1.11020    1.31559     .93688     .07372     .22862
 21.50000    1.10860    1.31646     .93356     .07463     .22954
 21.60000    1.10700    1.31733     .93025     .07555     .23045
 21.70000    1.10520    1.31795     .92679     .07646     .23136
 21.80000    1.10340    1.31856     .92335     .07737     .23227
 21.90000    1.10160    1.31917     .91992     .07828     .23318
 22.00000    1.09960    1.31952     .91633     .07918     .23408
 22.10000    1.09740    1.31962     .91260     .08009     .23499
 22.20000    1.09520    1.31972     .90888     .08099     .23589
 22.30000    1.09280    1.31956     .90501     .08189     .23679
 22.40000    1.09030    1.31926     .90107     .08279     .23769
 22.50000    1.08760    1.31871     .89699     .08368     .23858
 22.60000    1.08480    1.31803     .89284     .08458     .23948
 22.70000    1.08180    1.31709     .88854     .08547     .24037
 22.80000    1.07870    1.31601     .88418     .08636     .24126
 22.90000    1.07540    1.31468     .87967     .08725     .24215
 23.00000    1.07190    1.31308     .87502     .08814     .24304
 23.10000    1.06830    1.31134     .87031     .08902     .24392
 23.20000    1.06450    1.30933     .86545     .08991     .24481
 23.30000    1.06060    1.30719     .86053     .09079     .24569
 23.40000    1.05650    1.30478     .85547     .09167     .24657
 23.50000    1.05220    1.30210     .85026     .09255     .24745
 23.60000    1.04780    1.29927     .84500     .09342     .24832
 23.70000    1.04320    1.29618     .83960     .09430     .24920
 23.80000    1.03840    1.29281     .83406     .09517     .25007
 23.90000    1.03350    1.28929     .82846     .09604     .25094
 24.00000    1.02840    1.28550     .82272     .09691     .25181
 24.10000    1.02310    1.28143     .81685     .09778     .25268
 24.20000    1.01780    1.27734     .81100     .09864     .25355
 24.30000    1.01230    1.27297     .80501     .09951     .25441
 24.40000    1.00680    1.26857     .79905     .10037     .25527
 24.50000    1.00120    1.26401     .79303     .10123     .25613
 24.60000     .99550    1.25931     .78696     .10209     .25699
 24.70000     .98980    1.25457     .78091     .10295     .25785
 24.80000     .98420    1.24993     .77496     .10380     .25871
 24.90000     .97850    1.24514     .76896     .10466     .25956
 25.00000     .97300    1.24057     .76314     .10551     .26041
 26.00000     .92500    1.20250     .71154     .11394     .26885
 27.00000     .88000    1.16600     .66415     .12222     .27712
 28.00000     .84000    1.13400     .62222     .13033     .28524
 30.00000     .79000    1.10600     .56429     .14613     .30103
 35.00000     .68000     .95200     .48571     .14613     .30103
 40.00000     .55000     .77000     .39286     .14613     .30103
 60.00000     .20400     .28560     .14571     .14613     .30103
 90.00000     .05500     .07700     .03929     .14613     .30103
130.00000     .01400     .01960     .01000     .14613     .30103
160.00000     .00620     .00868     .00443     .14613     .30103
200.00000     .00240     .00336     .00171     .14613     .30103
250.00000     .00089     .00125     .00064     .14613     .30103
