#% Intrinsic AGN SED based on Mor and Netzer 2012 with some extra at short wavelengths
#% 1st col. wavelength(micron)
#% 2nd col. nuLnu arbitrary units 
    0.5100    0.8401
    0.6       0.73
    0.7       0.67
    0.8       0.59
    0.9       0.53
    1.0       0.51
    1.1       0.6
    1.3       0.77
    1.5       0.82
    1.7000    0.93
    2.0       1.024
    2.2000    1.0364
    2.7000    1.0479
    3.2000    1.0555
    3.7000    1.0624
    4.2000    1.0664
    4.7000    1.0641
    5.1000    1.0580
    5.2000    1.0561
    5.3000    1.0540
    5.4000    1.0517
    5.5000    1.0493
    5.6000    1.0468
    5.7000    1.0442
    5.8000    1.0414
    5.9000    1.0385
    6.0000    1.0355
    6.1000    1.0324
    6.2000    1.0291
    6.3000    1.0258
    6.4000    1.0224
    6.5000    1.0190
    6.6000    1.0156
    6.7000    1.0122
    6.8000    1.0088
    6.9000    1.0056
    7.0000    1.0025
    7.1000    0.9997
    7.2000    0.9972
    7.3000    0.9950
    7.4000    0.9933
    7.5000    0.9920
    7.6000    0.9913
    7.7000    0.9912
    7.8000    0.9916
    7.9000    0.9928
    8.0000    0.9947
    8.1000    0.9972
    8.2000    1.0005
    8.3000    1.0044
    8.4000    1.0091
    8.5000    1.0143
    8.6000    1.0201
    8.7000    1.0265
    8.8000    1.0333
    8.9000    1.0404
    9.0000    1.0479
    9.1000    1.0555
    9.2000    1.0632
    9.3000    1.0710
    9.4000    1.0786
    9.5000    1.0861
    9.6000    1.0933
    9.7000    1.1002
    9.8000    1.1067
    9.9000    1.1126
   10.0000    1.1181
   10.1000    1.1229
   10.2000    1.1270
   10.3000    1.1305
   10.4000    1.1332
   10.5000    1.1351
   10.6000    1.1363
   10.7000    1.1367
   10.8000    1.1363
   10.9000    1.1351
   11.0000    1.1332
   11.1000    1.1305
   11.2000    1.1272
   11.3000    1.1232
   11.4000    1.1187
   11.5000    1.1137
   11.6000    1.1082
   11.7000    1.1024
   11.8000    1.0964
   11.9000    1.0902
   12.0000    1.0839
   12.1000    1.0776
   12.2000    1.0714
   12.3000    1.0653
   12.4000    1.0594
   12.5000    1.0538
   12.6000    1.0486
   12.7000    1.0437
   12.8000    1.0393
   12.9000    1.0353
   13.0000    1.0319
   13.1000    1.0289
   13.2000    1.0264
   13.3000    1.0245
   13.4000    1.0232
   13.5000    1.0224
   13.6000    1.0221
   13.7000    1.0224
   13.8000    1.0233
   13.9000    1.0247
   14.0000    1.0266
   14.1000    1.0290
   14.2000    1.0319
   14.3000    1.0353
   14.4000    1.0392
   14.5000    1.0435
   14.6000    1.0482
   14.7000    1.0533
   14.8000    1.0587
   14.9000    1.0644
   15.0000    1.0704
   15.1000    1.0767
   15.2000    1.0831
   15.3000    1.0897
   15.4000    1.0964
   15.5000    1.1032
   15.6000    1.1100
   15.7000    1.1167
   15.8000    1.1234
   15.9000    1.1299
   16.0000    1.1363
   16.1000    1.1424
   16.2000    1.1483
   16.3000    1.1538
   16.4000    1.1590
   16.5000    1.1637
   16.6000    1.1680
   16.7000    1.1719
   16.8000    1.1753
   16.9000    1.1783
   17.0000    1.1807
   17.1000    1.1827
   17.2000    1.1842
   17.3000    1.1852
   17.4000    1.1859
   17.5000    1.1861
   17.6000    1.1860
   17.7000    1.1855
   17.8000    1.1848
   17.9000    1.1838
   18.0000    1.1826
   18.1000    1.1811
   18.2000    1.1795
   18.3000    1.1777
   18.4000    1.1758
   18.5000    1.1738
   18.6000    1.1716
   18.7000    1.1694
   18.8000    1.1671
   18.9000    1.1646
   19.0000    1.1622
   19.1000    1.1596
   19.2000    1.1571
   19.3000    1.1545
   19.4000    1.1518
   19.5000    1.1492
   19.6000    1.1466
   19.7000    1.1440
   19.8000    1.1414
   19.9000    1.1389
   20.0000    1.1365
   20.1000    1.1341
   20.2000    1.1318
   20.3000    1.1296
   20.4000    1.1275
   20.5000    1.1255
   20.6000    1.1235
   20.7000    1.1217
   20.8000    1.1199
   20.9000    1.1182
   21.0000    1.1165
   21.1000    1.1149
   21.2000    1.1134
   21.3000    1.1118
   21.4000    1.1102
   21.5000    1.1086
   21.6000    1.1070
   21.7000    1.1052
   21.8000    1.1034
   21.9000    1.1016
   22.0000    1.0996
   22.1000    1.0974
   22.2000    1.0952
   22.3000    1.0928
   22.4000    1.0903
   22.5000    1.0876
   22.6000    1.0848
   22.7000    1.0818
   22.8000    1.0787
   22.9000    1.0754
   23.0000    1.0719
   23.1000    1.0683
   23.2000    1.0645
   23.3000    1.0606
   23.4000    1.0565
   23.5000    1.0522
   23.6000    1.0478
   23.7000    1.0432
   23.8000    1.0384
   23.9000    1.0335
   24.0000    1.0284
   24.1000    1.0231
   24.2000    1.0178
   24.3000    1.0123
   24.4000    1.0068
   24.5000    1.0012
   24.6000    0.9955
   24.7000    0.9898
   24.8000    0.9842
   24.9000    0.9785
   25.0000    0.9730
 26. 0.925
27. 0.88
28. 0.84
30. 0.79
35. 0.68
40. 0.55
60. 0.204
90. 0.055
130. 0.014
160. 0.0062
200. 0.0024
250. 0.00089
